Run date,2025-03-07
Run time,0.82 min.
Increments,0.02 nm
Samples,100 #
Max V,0.694 V
max/min V,5.19 - 
 
Wavelength (nm),Intensity (mV)
585.0,133.997
585.02,133.997
585.04,133.997
585.06,133.997
585.08,133.96
585.1,134.104
585.12,134.121
585.14,133.972
585.16,133.98
585.18,134.101
585.2,134.16
585.22,134.192
585.24,134.059
585.26,134.051
585.28,133.833
585.3,134.263
585.32,134.222
585.34,134.165
585.36,133.983
585.38,133.997
585.4,134.181
585.42,134.333
585.44,134.198
585.46,134.407
585.48,134.212
585.5,134.017
585.52,134.024
585.54,134.253
585.56,134.269
585.58,134.275
585.6,134.296
585.62,134.39
585.64,134.088
585.66,134.157
585.68,134.212
585.7,134.171
585.72,134.114
585.74,134.303
585.76,134.104
585.78,134.268
585.8,134.313
585.82,134.411
585.84,134.202
585.86,134.328
585.88,134.195
585.9,134.15
585.92,134.238
585.94,134.328
585.96,134.46
585.98,134.436
586.0,134.161
586.02,134.436
586.04,134.319
586.06,134.293
586.08,134.228
586.1,134.422
586.12,134.337
586.14,134.367
586.16,134.396
586.18,134.323
586.2,134.427
586.22,134.364
586.24,134.472
586.26,134.31
586.28,134.389
586.3,134.559
586.32,134.479
586.34,134.465
586.36,134.41
586.38,134.327
586.4,134.566
586.42,134.411
586.44,134.375
586.46,134.525
586.48,134.385
586.5,134.471
586.52,134.5
586.54,134.488
586.56,134.458
586.58,134.633
586.6,134.639
586.62,134.525
586.64,134.58
586.66,134.532
586.68,134.681
586.7,134.704
586.72,134.5
586.74,134.526
586.76,134.738
586.78,134.763
586.8,134.758
586.82,134.955
586.84,134.785
586.86,134.697
586.88,134.832
586.9,134.868
586.92,134.879
586.94,134.993
586.96,134.731
586.98,134.756
587.0,134.822
587.02,134.976
587.04,135.057
587.06,135.3
587.08,135.283
587.1,135.213
587.12,135.256
587.14,135.052
587.16,135.205
587.18,135.044
587.2,135.403
587.22,135.354
587.24,135.431
587.26,135.418
587.28,135.306
587.3,135.633
587.32,135.503
587.34,135.875
587.36,135.75
587.38,135.838
587.4,135.774
587.42,135.886
587.44,135.92
587.46,136.077
587.48,136.194
587.5,136.152
587.52,136.222
587.54,136.35
587.56,136.615
587.58,136.684
587.6,136.765
587.62,136.997
587.64,137.131
587.66,137.202
587.68,137.372
587.7,137.488
587.72,137.859
587.74,138.216
587.76,138.589
587.78,138.801
587.8,139.253
587.82,139.808
587.84,140.636
587.86,141.533
587.88,142.488
587.9,143.578
587.92,144.613
587.94,146.869
587.96,148.49
587.98,150.636
588.0,153.042
588.02,156.316
588.04,159.243
588.06,163.465
588.08,167.337
588.1,171.68
588.12,175.399
588.14,179.488
588.16,183.389
588.18,187.192
588.2,190.743
588.22,194.71
588.24,197.403
588.26,201.054
588.28,204.062
588.3,206.542
588.32,208.83
588.34,211.785
588.36,214.01
588.38,216.246
588.4,219.045
588.42,221.943
588.44,224.896
588.46,228.143
588.48,232.081
588.5,236.443
588.52,241.566
588.54,246.882
588.56,253.838
588.58,262.038
588.6,270.576
588.62,280.732
588.64,289.62
588.66,304.763
588.68,317.936
588.7,334.707
588.72,351.074
588.74,375.512
588.76,393.158
588.78,416.822
588.8,437.401
588.82,464.711
588.84,478.088
588.86,501.582
588.88,511.438
588.9,531.99
588.92,538.428
588.94,556.372
588.96,556.054
588.98,571.674
589.0,568.946
589.02,577.912
589.04,581.111
589.06,586.684
589.08,589.663
589.1,593.542
589.12,597.188
589.14,601.347
589.16,605.74
589.18,609.923
589.2,614.896
589.22,619.087
589.24,624.262
589.26,631.707
589.28,637.923
589.3,647.85
589.32,654.64
589.34,665.909
589.36,670.458
589.38,680.728
589.4,681.987
589.42,691.035
589.44,687.805
589.46,694.861
589.48,687.02
589.5,690.265
589.52,673.044
589.54,667.328
589.56,643.832
589.58,632.341
589.6,602.828
589.62,592.582
589.64,560.673
589.66,545.979
589.68,521.219
589.7,511.178
589.72,486.399
589.74,471.697
589.76,461.931
589.78,449.111
589.8,444.288
589.82,436.239
589.84,434.767
589.86,427.481
589.88,427.316
589.9,419.912
589.92,419.892
589.94,412.38
589.96,411.955
589.98,402.468
590.0,399.438
590.02,388.226
590.04,384.573
590.06,371.431
590.08,365.649
590.1,348.976
590.12,338.976
590.14,319.818
590.16,306.653
590.18,286.369
590.2,267.926
590.22,250.237
590.24,232.131
590.26,213.693
590.28,200.074
590.3,187.206
590.32,176.508
590.34,167.561
590.36,159.66
590.38,153.293
590.4,149.171
590.42,145.721
590.44,142.477
590.46,140.066
590.48,138.567
590.5,137.659
590.52,136.775
590.54,136.111
590.56,135.805
590.58,135.502
590.6,135.252
590.62,135.352
590.64,135.302
590.66,135.088
590.68,135.201
590.7,134.906
590.72,134.823
590.74,134.892
590.76,134.747
590.78,134.886
590.8,134.774
590.82,134.498
590.84,134.835
590.86,134.763
590.88,134.67
590.9,134.564
590.92,134.498
590.94,134.554
590.96,134.421
590.98,134.659
591.0,134.535
591.02,134.554
591.04,134.677
591.06,134.467
591.08,134.374
591.1,134.495
591.12,134.529
591.14,134.477
591.16,134.219
591.18,134.258
591.2,134.436
591.22,134.456
591.24,134.45
591.26,134.31
591.28,134.315
591.3,134.317
591.32,134.403
591.34,134.293
591.36,134.463
591.38,134.354
591.4,134.125
591.42,134.259
591.44,134.115
591.46,134.246
591.48,134.233
591.5,134.249
591.52,134.163
591.54,134.219
591.56,134.042
591.58,134.253
591.6,134.351
591.62,134.152
591.64,134.007
591.66,134.296
591.68,134.17
591.7,134.158
591.72,133.99
591.74,134.185
591.76,134.076
591.78,134.33
591.8,134.201
591.82,134.121
591.84,134.243
591.86,134.118
591.88,134.108
591.9,134.114
591.92,134.0
591.94,134.251
591.96,134.135
591.98,134.014
592.0,133.96
